#  E (eV)   dos(E)     Int dos(E) EFermi =    6.220 eV
 -15.000  0.6246E-84  0.1249E-85
 -14.980  0.6246E-84  0.2498E-85
 -14.960  0.6246E-84  0.3748E-85
 -14.940  0.6246E-84  0.4997E-85
 -14.920  0.6246E-84  0.6246E-85
 -14.900  0.6246E-84  0.7495E-85
 -14.880  0.6246E-84  0.8745E-85
 -14.860  0.6246E-84  0.9994E-85
 -14.840  0.6246E-84  0.1124E-84
 -14.820  0.6246E-84  0.1249E-84
 -14.800  0.6246E-84  0.1374E-84
 -14.780  0.6246E-84  0.1499E-84
 -14.760  0.6246E-84  0.1624E-84
 -14.740  0.6246E-84  0.1749E-84
 -14.720  0.6246E-84  0.1874E-84
 -14.700  0.6246E-84  0.1999E-84
 -14.680  0.6246E-84  0.2124E-84
 -14.660  0.6246E-84  0.2249E-84
 -14.640  0.6246E-84  0.2374E-84
 -14.620  0.6246E-84  0.2498E-84
 -14.600  0.6246E-84  0.2623E-84
 -14.580  0.6246E-84  0.2748E-84
 -14.560  0.6246E-84  0.2873E-84
 -14.540  0.6246E-84  0.2998E-84
 -14.520  0.6246E-84  0.3123E-84
 -14.500  0.6246E-84  0.3248E-84
 -14.480  0.6246E-84  0.3373E-84
 -14.460  0.6246E-84  0.3498E-84
 -14.440  0.6246E-84  0.3623E-84
 -14.420  0.6246E-84  0.3748E-84
 -14.400  0.6246E-84  0.3873E-84
 -14.380  0.6246E-84  0.3998E-84
 -14.360  0.6246E-84  0.4122E-84
 -14.340  0.6246E-84  0.4247E-84
 -14.320  0.6246E-84  0.4372E-84
 -14.300  0.6246E-84  0.4497E-84
 -14.280  0.6246E-84  0.4622E-84
 -14.260  0.6246E-84  0.4747E-84
 -14.240  0.6246E-84  0.4872E-84
 -14.220  0.6246E-84  0.4997E-84
 -14.200  0.6246E-84  0.5122E-84
 -14.180  0.6246E-84  0.5247E-84
 -14.160  0.6246E-84  0.5372E-84
 -14.140  0.6246E-84  0.5497E-84
 -14.120  0.6246E-84  0.5622E-84
 -14.100  0.6246E-84  0.5746E-84
 -14.080  0.6246E-84  0.5871E-84
 -14.060  0.6246E-84  0.5996E-84
 -14.040  0.6246E-84  0.6121E-84
 -14.020  0.6246E-84  0.6246E-84
 -14.000  0.6246E-84  0.6371E-84
 -13.980  0.6246E-84  0.6496E-84
 -13.960  0.6246E-84  0.6621E-84
 -13.940  0.6246E-84  0.6746E-84
 -13.920  0.6246E-84  0.6871E-84
 -13.900  0.6246E-84  0.6996E-84
 -13.880  0.6246E-84  0.7121E-84
 -13.860  0.6246E-84  0.7246E-84
 -13.840  0.6246E-84  0.7370E-84
 -13.820  0.6246E-84  0.7495E-84
 -13.800  0.6246E-84  0.7620E-84
 -13.780  0.6246E-84  0.7745E-84
 -13.760  0.6246E-84  0.7870E-84
 -13.740  0.6246E-84  0.7995E-84
 -13.720  0.6246E-84  0.8120E-84
 -13.700  0.6246E-84  0.8245E-84
 -13.680  0.6246E-84  0.8370E-84
 -13.660  0.6246E-84  0.8495E-84
 -13.640  0.6246E-84  0.8620E-84
 -13.620  0.6246E-84  0.8745E-84
 -13.600  0.6246E-84  0.8869E-84
 -13.580  0.6246E-84  0.8994E-84
 -13.560  0.6246E-84  0.9119E-84
 -13.540  0.6246E-84  0.9244E-84
 -13.520  0.6246E-84  0.9369E-84
 -13.500  0.6246E-84  0.9494E-84
 -13.480  0.6246E-84  0.9619E-84
 -13.460  0.6246E-84  0.9744E-84
 -13.440  0.6246E-84  0.9869E-84
 -13.420  0.6246E-84  0.9994E-84
 -13.400  0.6246E-84  0.1012E-83
 -13.380  0.6246E-84  0.1024E-83
 -13.360  0.6246E-84  0.1037E-83
 -13.340  0.6246E-84  0.1049E-83
 -13.320  0.6246E-84  0.1062E-83
 -13.300  0.6246E-84  0.1074E-83
 -13.280  0.6246E-84  0.1087E-83
 -13.260  0.6246E-84  0.1099E-83
 -13.240  0.6246E-84  0.1112E-83
 -13.220  0.6246E-84  0.1124E-83
 -13.200  0.6246E-84  0.1137E-83
 -13.180  0.6246E-84  0.1149E-83
 -13.160  0.6246E-84  0.1162E-83
 -13.140  0.6246E-84  0.1174E-83
 -13.120  0.6246E-84  0.1187E-83
 -13.100  0.6246E-84  0.1199E-83
 -13.080  0.6246E-84  0.1212E-83
 -13.060  0.6246E-84  0.1224E-83
 -13.040  0.6246E-84  0.1237E-83
 -13.020  0.6246E-84  0.1249E-83
 -13.000  0.6246E-84  0.1262E-83
 -12.980  0.6246E-84  0.1274E-83
 -12.960  0.6246E-84  0.1287E-83
 -12.940  0.6246E-84  0.1299E-83
 -12.920  0.6246E-84  0.1312E-83
 -12.900  0.6246E-84  0.1324E-83
 -12.880  0.6246E-84  0.1337E-83
 -12.860  0.6246E-84  0.1349E-83
 -12.840  0.6246E-84  0.1362E-83
 -12.820  0.6246E-84  0.1374E-83
 -12.800  0.6246E-84  0.1387E-83
 -12.780  0.6246E-84  0.1399E-83
 -12.760  0.6246E-84  0.1412E-83
 -12.740  0.6246E-84  0.1424E-83
 -12.720  0.6246E-84  0.1437E-83
 -12.700  0.6246E-84  0.1449E-83
 -12.680  0.6246E-84  0.1462E-83
 -12.660  0.6246E-84  0.1474E-83
 -12.640  0.6246E-84  0.1487E-83
 -12.620  0.6246E-84  0.1499E-83
 -12.600  0.6246E-84  0.1512E-83
 -12.580  0.6246E-84  0.1524E-83
 -12.560  0.6246E-84  0.1537E-83
 -12.540  0.6246E-84  0.1549E-83
 -12.520  0.6246E-84  0.1562E-83
 -12.500  0.6246E-84  0.1574E-83
 -12.480  0.6246E-84  0.1587E-83
 -12.460  0.6246E-84  0.1599E-83
 -12.440  0.6246E-84  0.1612E-83
 -12.420  0.6246E-84  0.1624E-83
 -12.400  0.6246E-84  0.1636E-83
 -12.380  0.6246E-84  0.1649E-83
 -12.360  0.6246E-84  0.1661E-83
 -12.340  0.6246E-84  0.1674E-83
 -12.320  0.6246E-84  0.1686E-83
 -12.300  0.6246E-84  0.1699E-83
 -12.280  0.6246E-84  0.1711E-83
 -12.260  0.6246E-84  0.1724E-83
 -12.240  0.6246E-84  0.1736E-83
 -12.220  0.6246E-84  0.1749E-83
 -12.200  0.6246E-84  0.1761E-83
 -12.180  0.6246E-84  0.1774E-83
 -12.160  0.6246E-84  0.1786E-83
 -12.140  0.6246E-84  0.1799E-83
 -12.120  0.6246E-84  0.1811E-83
 -12.100  0.6246E-84  0.1824E-83
 -12.080  0.6246E-84  0.1836E-83
 -12.060  0.6246E-84  0.1849E-83
 -12.040  0.6246E-84  0.1861E-83
 -12.020  0.6246E-84  0.1874E-83
 -12.000  0.6246E-84  0.1886E-83
 -11.980  0.6246E-84  0.1899E-83
 -11.960  0.6246E-84  0.1911E-83
 -11.940  0.6246E-84  0.1924E-83
 -11.920  0.6246E-84  0.1936E-83
 -11.900  0.6246E-84  0.1949E-83
 -11.880  0.6246E-84  0.1961E-83
 -11.860  0.6246E-84  0.1974E-83
 -11.840  0.6246E-84  0.1986E-83
 -11.820  0.6246E-84  0.1999E-83
 -11.800  0.6246E-84  0.2011E-83
 -11.780  0.6246E-84  0.2024E-83
 -11.760  0.6246E-84  0.2036E-83
 -11.740  0.6246E-84  0.2049E-83
 -11.720  0.6246E-84  0.2061E-83
 -11.700  0.6246E-84  0.2074E-83
 -11.680  0.6246E-84  0.2086E-83
 -11.660  0.6246E-84  0.2099E-83
 -11.640  0.6246E-84  0.2111E-83
 -11.620  0.6246E-84  0.2124E-83
 -11.600  0.6246E-84  0.2136E-83
 -11.580  0.6246E-84  0.2149E-83
 -11.560  0.6246E-84  0.2161E-83
 -11.540  0.6246E-84  0.2174E-83
 -11.520  0.6246E-84  0.2186E-83
 -11.500  0.6246E-84  0.2199E-83
 -11.480  0.6246E-84  0.2211E-83
 -11.460  0.6246E-84  0.2224E-83
 -11.440  0.6246E-84  0.2236E-83
 -11.420  0.6246E-84  0.2249E-83
 -11.400  0.6246E-84  0.2261E-83
 -11.380  0.6246E-84  0.2274E-83
 -11.360  0.6246E-84  0.2286E-83
 -11.340  0.6246E-84  0.2299E-83
 -11.320  0.6246E-84  0.2311E-83
 -11.300  0.6246E-84  0.2324E-83
 -11.280  0.6246E-84  0.2336E-83
 -11.260  0.6246E-84  0.2349E-83
 -11.240  0.6246E-84  0.2361E-83
 -11.220  0.6246E-84  0.2374E-83
 -11.200  0.6246E-84  0.2386E-83
 -11.180  0.6246E-84  0.2399E-83
 -11.160  0.6246E-84  0.2411E-83
 -11.140  0.6246E-84  0.2423E-83
 -11.120  0.6246E-84  0.2436E-83
 -11.100  0.6246E-84  0.2448E-83
 -11.080  0.6246E-84  0.2461E-83
 -11.060  0.6246E-84  0.2473E-83
 -11.040  0.6246E-84  0.2486E-83
 -11.020  0.6246E-84  0.2498E-83
 -11.000  0.6246E-84  0.2511E-83
 -10.980  0.6246E-84  0.2523E-83
 -10.960  0.6246E-84  0.2536E-83
 -10.940  0.6246E-84  0.2548E-83
 -10.920  0.6246E-84  0.2561E-83
 -10.900  0.6246E-84  0.2573E-83
 -10.880  0.6246E-84  0.2586E-83
 -10.860  0.6246E-84  0.2598E-83
 -10.840  0.6246E-84  0.2611E-83
 -10.820  0.6246E-84  0.2623E-83
 -10.800  0.6246E-84  0.2636E-83
 -10.780  0.6246E-84  0.2648E-83
 -10.760  0.6246E-84  0.2661E-83
 -10.740  0.6246E-84  0.2673E-83
 -10.720  0.6246E-84  0.2686E-83
 -10.700  0.6246E-84  0.2698E-83
 -10.680  0.6246E-84  0.2711E-83
 -10.660  0.6246E-84  0.2723E-83
 -10.640  0.6246E-84  0.2736E-83
 -10.620  0.6246E-84  0.2748E-83
 -10.600  0.6246E-84  0.2761E-83
 -10.580  0.6246E-84  0.2773E-83
 -10.560  0.6246E-84  0.2786E-83
 -10.540  0.6246E-84  0.2798E-83
 -10.520  0.6246E-84  0.2811E-83
 -10.500  0.6246E-84  0.2823E-83
 -10.480  0.6246E-84  0.2836E-83
 -10.460  0.6246E-84  0.2848E-83
 -10.440  0.6246E-84  0.2861E-83
 -10.420  0.6246E-84  0.2873E-83
 -10.400  0.6246E-84  0.2886E-83
 -10.380  0.6246E-84  0.2898E-83
 -10.360  0.6246E-84  0.2911E-83
 -10.340  0.6246E-84  0.2923E-83
 -10.320  0.6246E-84  0.2936E-83
 -10.300  0.6246E-84  0.2948E-83
 -10.280  0.6246E-84  0.2961E-83
 -10.260  0.6246E-84  0.2973E-83
 -10.240  0.6246E-84  0.2986E-83
 -10.220  0.6246E-84  0.2998E-83
 -10.200  0.6246E-84  0.3011E-83
 -10.180  0.6246E-84  0.3023E-83
 -10.160  0.6246E-84  0.3036E-83
 -10.140  0.6246E-84  0.3048E-83
 -10.120  0.6246E-84  0.3061E-83
 -10.100  0.6246E-84  0.3073E-83
 -10.080  0.6246E-84  0.3086E-83
 -10.060  0.6246E-84  0.3098E-83
 -10.040  0.6246E-84  0.3111E-83
 -10.020  0.6246E-84  0.3123E-83
 -10.000  0.6246E-84  0.3136E-83
  -9.980  0.6246E-84  0.3148E-83
  -9.960  0.6246E-84  0.3161E-83
  -9.940  0.6246E-84  0.3173E-83
  -9.920  0.6246E-84  0.3186E-83
  -9.900  0.6246E-84  0.3198E-83
  -9.880  0.6246E-84  0.3211E-83
  -9.860  0.6246E-84  0.3223E-83
  -9.840  0.6246E-84  0.3235E-83
  -9.820  0.6246E-84  0.3248E-83
  -9.800  0.6246E-84  0.3260E-83
  -9.780  0.6246E-84  0.3273E-83
  -9.760  0.6246E-84  0.3285E-83
  -9.740  0.6246E-84  0.3298E-83
  -9.720  0.6246E-84  0.3310E-83
  -9.700  0.6246E-84  0.3323E-83
  -9.680  0.6246E-84  0.3335E-83
  -9.660  0.6246E-84  0.3348E-83
  -9.640  0.6246E-84  0.3360E-83
  -9.620  0.6246E-84  0.3373E-83
  -9.600  0.6246E-84  0.3385E-83
  -9.580  0.6246E-84  0.3398E-83
  -9.560  0.6246E-84  0.3410E-83
  -9.540  0.6246E-84  0.3423E-83
  -9.520  0.6246E-84  0.3435E-83
  -9.500  0.6246E-84  0.3448E-83
  -9.480  0.6246E-84  0.3460E-83
  -9.460  0.6246E-84  0.3473E-83
  -9.440  0.6246E-84  0.3485E-83
  -9.420  0.6246E-84  0.3498E-83
  -9.400  0.6246E-84  0.3510E-83
  -9.380  0.6246E-84  0.3523E-83
  -9.360  0.6246E-84  0.3535E-83
  -9.340  0.6246E-84  0.3548E-83
  -9.320  0.6246E-84  0.3560E-83
  -9.300  0.6246E-84  0.3573E-83
  -9.280  0.6246E-84  0.3585E-83
  -9.260  0.6246E-84  0.3598E-83
  -9.240  0.6246E-84  0.3610E-83
  -9.220  0.6246E-84  0.3623E-83
  -9.200  0.6246E-84  0.3635E-83
  -9.180  0.6246E-84  0.3648E-83
  -9.160  0.6246E-84  0.3660E-83
  -9.140  0.6246E-84  0.3673E-83
  -9.120  0.6246E-84  0.3685E-83
  -9.100  0.6246E-84  0.3698E-83
  -9.080  0.6246E-84  0.3710E-83
  -9.060  0.6246E-84  0.3723E-83
  -9.040  0.6246E-84  0.3735E-83
  -9.020  0.6246E-84  0.3748E-83
  -9.000  0.6246E-84  0.3760E-83
  -8.980  0.6246E-84  0.3773E-83
  -8.960  0.6246E-84  0.3785E-83
  -8.940  0.6246E-84  0.3798E-83
  -8.920  0.6246E-84  0.3810E-83
  -8.900  0.6246E-84  0.3823E-83
  -8.880  0.6246E-84  0.3835E-83
  -8.860  0.6246E-84  0.3848E-83
  -8.840  0.6246E-84  0.3860E-83
  -8.820  0.6246E-84  0.3873E-83
  -8.800  0.6246E-84  0.3885E-83
  -8.780  0.6246E-84  0.3898E-83
  -8.760  0.6246E-84  0.3910E-83
  -8.740  0.6246E-84  0.3923E-83
  -8.720  0.6246E-84  0.3935E-83
  -8.700  0.6246E-84  0.3948E-83
  -8.680  0.6246E-84  0.3960E-83
  -8.660  0.6246E-84  0.3973E-83
  -8.640  0.6246E-84  0.3985E-83
  -8.620  0.6246E-84  0.3998E-83
  -8.600  0.6246E-84  0.4010E-83
  -8.580  0.6246E-84  0.4023E-83
  -8.560  0.6246E-84  0.4035E-83
  -8.540  0.6246E-84  0.4047E-83
  -8.520  0.6246E-84  0.4060E-83
  -8.500  0.6246E-84  0.4072E-83
  -8.480  0.6246E-84  0.4085E-83
  -8.460  0.6246E-84  0.4097E-83
  -8.440  0.6246E-84  0.4110E-83
  -8.420  0.6246E-84  0.4122E-83
  -8.400  0.6246E-84  0.4135E-83
  -8.380  0.6246E-84  0.4147E-83
  -8.360  0.6246E-84  0.4160E-83
  -8.340  0.6246E-84  0.4172E-83
  -8.320  0.6246E-84  0.4185E-83
  -8.300  0.6246E-84  0.4197E-83
  -8.280  0.6246E-84  0.4210E-83
  -8.260  0.6246E-84  0.4222E-83
  -8.240  0.6246E-84  0.4235E-83
  -8.220  0.6246E-84  0.4247E-83
  -8.200  0.6246E-84  0.4260E-83
  -8.180  0.6246E-84  0.4272E-83
  -8.160  0.6246E-84  0.4285E-83
  -8.140  0.6246E-84  0.4297E-83
  -8.120  0.6246E-84  0.4310E-83
  -8.100  0.6246E-84  0.4322E-83
  -8.080  0.6246E-84  0.4335E-83
  -8.060  0.6246E-84  0.4347E-83
  -8.040  0.6246E-84  0.4360E-83
  -8.020  0.6246E-84  0.4372E-83
  -8.000  0.6246E-84  0.4385E-83
  -7.980  0.6246E-84  0.4397E-83
  -7.960  0.6246E-84  0.4410E-83
  -7.940  0.6246E-84  0.4422E-83
  -7.920  0.6246E-84  0.4435E-83
  -7.900  0.6246E-84  0.4447E-83
  -7.880  0.6246E-84  0.4460E-83
  -7.860  0.6246E-84  0.4472E-83
  -7.840  0.6246E-84  0.4485E-83
  -7.820  0.6246E-84  0.4497E-83
  -7.800  0.6246E-84  0.4510E-83
  -7.780  0.6246E-84  0.4522E-83
  -7.760  0.6246E-84  0.4535E-83
  -7.740  0.6246E-84  0.4547E-83
  -7.720  0.6246E-84  0.4560E-83
  -7.700  0.6246E-84  0.4572E-83
  -7.680  0.6246E-84  0.4585E-83
  -7.660  0.6246E-84  0.4597E-83
  -7.640  0.6246E-84  0.4610E-83
  -7.620  0.6246E-84  0.4622E-83
  -7.600  0.6246E-84  0.4635E-83
  -7.580  0.6246E-84  0.4647E-83
  -7.560  0.6246E-84  0.4660E-83
  -7.540  0.6246E-84  0.4672E-83
  -7.520  0.6246E-84  0.4685E-83
  -7.500  0.6246E-84  0.4697E-83
  -7.480  0.6246E-84  0.4710E-83
  -7.460  0.6246E-84  0.4722E-83
  -7.440  0.6246E-84  0.4735E-83
  -7.420  0.6246E-84  0.4747E-83
  -7.400  0.6246E-84  0.4760E-83
  -7.380  0.6246E-84  0.4772E-83
  -7.360  0.6246E-84  0.4785E-83
  -7.340  0.6246E-84  0.4797E-83
  -7.320  0.6246E-84  0.4810E-83
  -7.300  0.6246E-84  0.4822E-83
  -7.280  0.6246E-84  0.4835E-83
  -7.260  0.6246E-84  0.4847E-83
  -7.240  0.6246E-84  0.4859E-83
  -7.220  0.6246E-84  0.4872E-83
  -7.200  0.6246E-84  0.4884E-83
  -7.180  0.6246E-84  0.4897E-83
  -7.160  0.6246E-84  0.4909E-83
  -7.140  0.6246E-84  0.4922E-83
  -7.120  0.6246E-84  0.4934E-83
  -7.100  0.6246E-84  0.4947E-83
  -7.080  0.6246E-84  0.4959E-83
  -7.060  0.6246E-84  0.4972E-83
  -7.040  0.6246E-84  0.4984E-83
  -7.020  0.6246E-84  0.4997E-83
  -7.000  0.6246E-84  0.5009E-83
  -6.980  0.6246E-84  0.5022E-83
  -6.960  0.6246E-84  0.5034E-83
  -6.940  0.6246E-84  0.5047E-83
  -6.920  0.6246E-84  0.5059E-83
  -6.900  0.6246E-84  0.5072E-83
  -6.880  0.6246E-84  0.5084E-83
  -6.860  0.6246E-84  0.5097E-83
  -6.840  0.6246E-84  0.5109E-83
  -6.820  0.6246E-84  0.5122E-83
  -6.800  0.6246E-84  0.5134E-83
  -6.780  0.6246E-84  0.5147E-83
  -6.760  0.6246E-84  0.5159E-83
  -6.740  0.6246E-84  0.5172E-83
  -6.720  0.6246E-84  0.5184E-83
  -6.700  0.6246E-84  0.5197E-83
  -6.680  0.6246E-84  0.5209E-83
  -6.660  0.6246E-84  0.5222E-83
  -6.640  0.6246E-84  0.5234E-83
  -6.620  0.6246E-84  0.5247E-83
  -6.600  0.6246E-84  0.5259E-83
  -6.580  0.6246E-84  0.5272E-83
  -6.560  0.6246E-84  0.5284E-83
  -6.540  0.6246E-84  0.5297E-83
  -6.520  0.6246E-84  0.5309E-83
  -6.500  0.6246E-84  0.5322E-83
  -6.480  0.6246E-84  0.5334E-83
  -6.460  0.6246E-84  0.5347E-83
  -6.440  0.6246E-84  0.5359E-83
  -6.420  0.6246E-84  0.5372E-83
  -6.400  0.6246E-84  0.5384E-83
  -6.380  0.6246E-84  0.5397E-83
  -6.360  0.6246E-84  0.5409E-83
  -6.340  0.6246E-84  0.5422E-83
  -6.320  0.6246E-84  0.5434E-83
  -6.300  0.6246E-84  0.5447E-83
  -6.280  0.6246E-84  0.5459E-83
  -6.260  0.6246E-84  0.5472E-83
  -6.240  0.6246E-84  0.5484E-83
  -6.220  0.6246E-84  0.5497E-83
  -6.200  0.6246E-84  0.5509E-83
  -6.180  0.6246E-84  0.5522E-83
  -6.160  0.6246E-84  0.5534E-83
  -6.140  0.6246E-84  0.5547E-83
  -6.120  0.6246E-84  0.5559E-83
  -6.100  0.6246E-84  0.5572E-83
  -6.080  0.6246E-84  0.5584E-83
  -6.060  0.6246E-84  0.5597E-83
  -6.040  0.6246E-84  0.5609E-83
  -6.020  0.9605E-80  0.1977E-81
  -6.000  0.2121E-68  0.4243E-70
  -5.980  0.6363E-58  0.1273E-59
  -5.960  0.2594E-48  0.5188E-50
  -5.940  0.1439E-39  0.2877E-41
  -5.920  0.1087E-31  0.2174E-33
  -5.900  0.1120E-24  0.2241E-26
  -5.880  0.1578E-18  0.3157E-20
  -5.860  0.3047E-13  0.6094E-15
  -5.840  0.8086E-09  0.1617E-10
  -5.820  0.2968E-05  0.5937E-07
  -5.800  0.1522E-02  0.3051E-04
  -5.780  0.1119E+00  0.2269E-02
  -5.760  0.1256E+01  0.2739E-01
  -5.740  0.2633E+01  0.8005E-01
  -5.720  0.1964E+01  0.1193E+00
  -5.700  0.1387E+01  0.1471E+00
  -5.680  0.1155E+01  0.1702E+00
  -5.660  0.9846E+00  0.1898E+00
  -5.640  0.9107E+00  0.2081E+00
  -5.620  0.8266E+00  0.2246E+00
  -5.600  0.7666E+00  0.2399E+00
  -5.580  0.7260E+00  0.2544E+00
  -5.560  0.6733E+00  0.2679E+00
  -5.540  0.6775E+00  0.2815E+00
  -5.520  0.5636E+00  0.2927E+00
  -5.500  0.6692E+00  0.3061E+00
  -5.480  0.5204E+00  0.3165E+00
  -5.460  0.5654E+00  0.3278E+00
  -5.440  0.5427E+00  0.3387E+00
  -5.420  0.5330E+00  0.3493E+00
  -5.400  0.4818E+00  0.3590E+00
  -5.380  0.4468E+00  0.3679E+00
  -5.360  0.6121E+00  0.3802E+00
  -5.340  0.3894E+00  0.3880E+00
  -5.320  0.3216E+00  0.3944E+00
  -5.300  0.6689E+00  0.4078E+00
  -5.280  0.4523E+00  0.4168E+00
  -5.260  0.1503E+00  0.4198E+00
  -5.240  0.5547E+00  0.4309E+00
  -5.220  0.6340E+00  0.4436E+00
  -5.200  0.2122E+00  0.4478E+00
  -5.180  0.2365E+00  0.4526E+00
  -5.160  0.5854E+00  0.4643E+00
  -5.140  0.5036E+00  0.4743E+00
  -5.120  0.2310E+00  0.4790E+00
  -5.100  0.3046E+00  0.4851E+00
  -5.080  0.3709E+00  0.4925E+00
  -5.060  0.5160E+00  0.5028E+00
  -5.040  0.3809E+00  0.5104E+00
  -5.020  0.2878E+00  0.5162E+00
  -5.000  0.1362E+00  0.5189E+00
  -4.980  0.4432E+00  0.5278E+00
  -4.960  0.6288E+00  0.5403E+00
  -4.940  0.3084E+00  0.5465E+00
  -4.920  0.4211E-01  0.5473E+00
  -4.900  0.1453E+00  0.5502E+00
  -4.880  0.7150E+00  0.5645E+00
  -4.860  0.5603E+00  0.5758E+00
  -4.840  0.6705E-01  0.5771E+00
  -4.820  0.2518E-01  0.5776E+00
  -4.800  0.2926E+00  0.5835E+00
  -4.780  0.7365E+00  0.5982E+00
  -4.760  0.4001E+00  0.6062E+00
  -4.740  0.4756E-01  0.6071E+00
  -4.720  0.1373E+00  0.6099E+00
  -4.700  0.3144E+00  0.6162E+00
  -4.680  0.4527E+00  0.6252E+00
  -4.660  0.4931E+00  0.6351E+00
  -4.640  0.1487E+00  0.6381E+00
  -4.620  0.2688E+00  0.6434E+00
  -4.600  0.1593E+00  0.6466E+00
  -4.580  0.1549E+00  0.6497E+00
  -4.560  0.5597E+00  0.6609E+00
  -4.540  0.4492E+00  0.6699E+00
  -4.520  0.2795E+00  0.6755E+00
  -4.500  0.5493E-01  0.6766E+00
  -4.480  0.1577E-01  0.6769E+00
  -4.460  0.2767E+00  0.6824E+00
  -4.440  0.8100E+00  0.6986E+00
  -4.420  0.3658E+00  0.7060E+00
  -4.400  0.2560E-01  0.7065E+00
  -4.380  0.5530E-02  0.7066E+00
  -4.360  0.1163E+00  0.7089E+00
  -4.340  0.5030E+00  0.7190E+00
  -4.320  0.6549E+00  0.7321E+00
  -4.300  0.2030E+00  0.7361E+00
  -4.280  0.2382E-01  0.7366E+00
  -4.260  0.1625E+00  0.7398E+00
  -4.240  0.2674E+00  0.7452E+00
  -4.220  0.1927E+00  0.7490E+00
  -4.200  0.5279E+00  0.7596E+00
  -4.180  0.3314E+00  0.7662E+00
  -4.160  0.2419E+00  0.7711E+00
  -4.140  0.2213E+00  0.7755E+00
  -4.120  0.3118E-01  0.7761E+00
  -4.100  0.4055E-01  0.7769E+00
  -4.080  0.4136E+00  0.7852E+00
  -4.060  0.7538E+00  0.8003E+00
  -4.040  0.2670E+00  0.8056E+00
  -4.020  0.1745E-01  0.8060E+00
  -4.000  0.5453E-02  0.8061E+00
  -3.980  0.1072E+00  0.8082E+00
  -3.960  0.3797E+00  0.8158E+00
  -3.940  0.6008E+00  0.8278E+00
  -3.920  0.3628E+00  0.8351E+00
  -3.900  0.5759E-01  0.8362E+00
  -3.880  0.1944E+00  0.8401E+00
  -3.860  0.2408E+00  0.8449E+00
  -3.840  0.4533E-01  0.8458E+00
  -3.820  0.1438E+00  0.8487E+00
  -3.800  0.6350E+00  0.8614E+00
  -3.780  0.5680E+00  0.8728E+00
  -3.760  0.1353E+00  0.8755E+00
  -3.740  0.8338E-02  0.8757E+00
  -3.720  0.5920E-01  0.8768E+00
  -3.700  0.2685E+00  0.8822E+00
  -3.680  0.2903E+00  0.8880E+00
  -3.660  0.5472E+00  0.8990E+00
  -3.640  0.3884E+00  0.9067E+00
  -3.620  0.3026E+00  0.9128E+00
  -3.600  0.1252E+00  0.9153E+00
  -3.580  0.3785E-01  0.9160E+00
  -3.560  0.2240E+00  0.9205E+00
  -3.540  0.3158E+00  0.9268E+00
  -3.520  0.5248E+00  0.9373E+00
  -3.500  0.6408E+00  0.9501E+00
  -3.480  0.2723E+00  0.9556E+00
  -3.460  0.2645E+00  0.9609E+00
  -3.440  0.4266E+00  0.9694E+00
  -3.420  0.5606E+00  0.9806E+00
  -3.400  0.2859E+00  0.9863E+00
  -3.380  0.3337E+00  0.9930E+00
  -3.360  0.3891E+00  0.1001E+01
  -3.340  0.1907E+00  0.1005E+01
  -3.320  0.1784E-01  0.1005E+01
  -3.300  0.2432E-03  0.1005E+01
  -3.280  0.1838E-02  0.1005E+01
  -3.260  0.5995E-01  0.1006E+01
  -3.240  0.2670E+00  0.1012E+01
  -3.220  0.2276E+00  0.1016E+01
  -3.200  0.2844E+00  0.1022E+01
  -3.180  0.1438E+00  0.1025E+01
  -3.160  0.1030E-01  0.1025E+01
  -3.140  0.1456E-02  0.1025E+01
  -3.120  0.5056E-01  0.1026E+01
  -3.100  0.2551E+00  0.1031E+01
  -3.080  0.1760E+00  0.1035E+01
  -3.060  0.7619E-01  0.1036E+01
  -3.040  0.2650E+00  0.1041E+01
  -3.020  0.1579E+00  0.1045E+01
  -3.000  0.1408E-01  0.1045E+01
  -2.980  0.5026E-01  0.1046E+01
  -2.960  0.2546E+00  0.1051E+01
  -2.940  0.1750E+00  0.1054E+01
